Brown University Keck/NASA Relab Spectrum MS-CMP-043-B/CBMS43,
W,R
0.3,0.07154
0.305,0.07386
0.31,0.0819
0.315,0.08829
0.32,0.09683
0.325,0.10619
0.33,0.11671
0.335,0.12717
0.34,0.13899
0.345,0.14988
0.35,0.15935
0.355,0.17073
0.36,0.18125
0.365,0.19227
0.37,0.2027
0.375,0.21299
0.38,0.22271
0.385,0.23122
0.39,0.24062
0.395,0.24706
0.4,0.2526
0.405,0.26001
0.41,0.26374
0.415,0.26969
0.42,0.27462
0.425,0.2796
0.43,0.28521
0.435,0.28987
0.44,0.29441
0.445,0.29911
0.45,0.30251
0.455,0.30694
0.46,0.31044
0.465,0.31418
0.47,0.31791
0.475,0.32408
0.48,0.32909
0.485,0.33272
0.49,0.33676
0.495,0.33999
0.5,0.34455
0.505,0.34921
0.51,0.35233
0.515,0.35742
0.52,0.36175
0.525,0.36615
0.53,0.36867
0.535,0.37184
0.54,0.37488
0.545,0.37718
0.55,0.37919
0.555,0.38187
0.56,0.38527
0.565,0.38617
0.57,0.38914
0.575,0.39052
0.58,0.39177
0.585,0.39263
0.59,0.39422
0.595,0.39538
0.6,0.39576
0.605,0.39681
0.61,0.39802
0.615,0.39788
0.62,0.39895
0.625,0.39988
0.63,0.40074
0.635,0.40077
0.64,0.40176
0.645,0.40237
0.65,0.40193
0.655,0.40287
0.66,0.40295
0.665,0.40328
0.67,0.40326
0.675,0.40461
0.68,0.40473
0.685,0.40347
0.69,0.40439
0.695,0.40446
0.7,0.40404
0.705,0.40524
0.71,0.4051
0.715,0.40558
0.72,0.40436
0.725,0.40441
0.73,0.40369
0.735,0.40463
0.74,0.40539
0.745,0.40396
0.75,0.40501
0.755,0.40546
0.76,0.40176
0.765,0.40327
0.77,0.40278
0.775,0.40149
0.78,0.40119
0.785,0.40123
0.79,0.40122
0.795,0.40128
0.8,0.40008
0.805,0.40054
0.81,0.39912
0.815,0.39805
0.82,0.39743
0.825,0.39816
0.83,0.3958
0.835,0.39508
0.84,0.39341
0.845,0.39392
0.85,0.39096
0.855,0.38824
0.86,0.38723
0.865,0.38615
0.87,0.38289
0.875,0.38246
0.88,0.38102
0.885,0.3779
0.89,0.37598
0.895,0.37383
0.9,0.37268
0.905,0.3693
0.91,0.36608
0.915,0.36503
0.92,0.36155
0.925,0.35848
0.93,0.3555
0.935,0.35311
0.94,0.35063
0.945,0.347
0.95,0.3449
0.955,0.3417
0.96,0.33857
0.965,0.33537
0.97,0.33273
0.975,0.33035
0.98,0.32694
0.985,0.32392
0.99,0.32148
0.995,0.31959
1,0.31676
1.005,0.31486
1.01,0.31369
1.015,0.31236
1.02,0.30995
1.025,0.30981
1.03,0.30927
1.035,0.30992
1.04,0.30959
1.045,0.31064
1.05,0.3116
1.055,0.31332
1.06,0.3142
1.065,0.3164
1.07,0.31888
1.075,0.32178
1.08,0.32511
1.085,0.32873
1.09,0.33252
1.095,0.33621
1.1,0.34074
1.105,0.34435
1.11,0.34897
1.115,0.35351
1.12,0.35808
1.125,0.36183
1.13,0.36574
1.135,0.36919
1.14,0.37261
1.145,0.3768
1.15,0.38008
1.155,0.38331
1.16,0.38623
1.165,0.38898
1.17,0.39215
1.175,0.39416
1.18,0.39753
1.185,0.40038
1.19,0.40242
1.195,0.40511
1.2,0.4082
1.205,0.40988
1.21,0.41187
1.215,0.41372
1.22,0.41693
1.225,0.41897
1.23,0.42067
1.235,0.4218
1.24,0.42445
1.245,0.42563
1.25,0.42794
1.255,0.43029
1.26,0.43243
1.265,0.43428
1.27,0.43607
1.275,0.43752
1.28,0.43955
1.285,0.44095
1.29,0.44333
1.295,0.44557
1.3,0.44699
1.305,0.44897
1.31,0.45101
1.315,0.45343
1.32,0.45452
1.325,0.45669
1.33,0.45939
1.335,0.46093
1.34,0.46283
1.345,0.46447
1.35,0.46521
1.355,0.46743
1.36,0.47047
1.365,0.46825
1.37,0.4705
1.375,0.47151
1.38,0.47505
1.385,0.47778
1.39,0.47755
1.395,0.47811
1.4,0.47909
1.405,0.48208
1.41,0.48266
1.415,0.48613
1.42,0.48803
1.425,0.48971
1.43,0.4917
1.435,0.49283
1.44,0.4948
1.445,0.49548
1.45,0.4973
1.455,0.49873
1.46,0.49979
1.465,0.50165
1.47,0.50229
1.475,0.50336
1.48,0.50364
1.485,0.50488
1.49,0.50685
1.495,0.50732
1.5,0.50839
1.505,0.50984
1.51,0.51061
1.515,0.51114
1.52,0.51227
1.525,0.5132
1.53,0.5136
1.535,0.51497
1.54,0.51585
1.545,0.51583
1.55,0.51673
1.555,0.51666
1.56,0.51726
1.565,0.51807
1.57,0.51767
1.575,0.51896
1.58,0.51987
1.585,0.52026
1.59,0.52003
1.595,0.52173
1.6,0.52116
1.605,0.52119
1.61,0.52307
1.615,0.52249
1.62,0.5218
1.625,0.52229
1.63,0.52206
1.635,0.52236
1.64,0.52209
1.645,0.52275
1.65,0.52205
1.655,0.52268
1.66,0.52138
1.665,0.52169
1.67,0.52103
1.675,0.52135
1.68,0.52162
1.685,0.52143
1.69,0.52191
1.695,0.52252
1.7,0.52259
1.705,0.52149
1.71,0.52164
1.715,0.52179
1.72,0.52112
1.725,0.52102
1.73,0.52091
1.735,0.51996
1.74,0.51999
1.745,0.52013
1.75,0.51978
1.755,0.52007
1.76,0.51972
1.765,0.51874
1.77,0.51864
1.775,0.51792
1.78,0.51782
1.785,0.51789
1.79,0.51753
1.795,0.51719
1.8,0.51735
1.805,0.51706
1.81,0.51705
1.815,0.51726
1.82,0.517
1.825,0.51662
1.83,0.51698
1.835,0.51704
1.84,0.51534
1.845,0.51522
1.85,0.51454
1.855,0.51495
1.86,0.51317
1.865,0.51406
1.87,0.51489
1.875,0.51093
1.88,0.51177
1.885,0.51236
1.89,0.51099
1.895,0.50992
1.9,0.50888
1.905,0.5061
1.91,0.50542
1.915,0.50515
1.92,0.50541
1.925,0.50427
1.93,0.50426
1.935,0.5044
1.94,0.50355
1.945,0.50427
1.95,0.50494
1.955,0.50597
1.96,0.5054
1.965,0.50481
1.97,0.50554
1.975,0.50539
1.98,0.50545
1.985,0.50557
1.99,0.50517
1.995,0.50519
2,0.50512
2.005,0.50562
2.01,0.50535
2.015,0.50488
2.02,0.50432
2.025,0.50452
2.03,0.50423
2.035,0.5041
2.04,0.50396
2.045,0.50379
2.05,0.50322
2.055,0.5031
2.06,0.50356
2.065,0.50302
2.07,0.50231
2.075,0.50254
2.08,0.50246
2.085,0.50216
2.09,0.50154
2.095,0.50084
2.1,0.50047
2.105,0.49996
2.11,0.50007
2.115,0.49925
2.12,0.50014
2.125,0.49899
2.13,0.49849
2.135,0.49811
2.14,0.49651
2.145,0.49628
2.15,0.49628
2.155,0.49616
2.16,0.49555
2.165,0.49494
2.17,0.49467
2.175,0.49387
2.18,0.49343
2.185,0.49358
2.19,0.49351
2.195,0.49272
2.2,0.49271
2.205,0.49199
2.21,0.49149
2.215,0.49104
2.22,0.49047
2.225,0.48952
2.23,0.48845
2.235,0.48813
2.24,0.48647
2.245,0.48513
2.25,0.48491
2.255,0.48488
2.26,0.48568
2.265,0.48638
2.27,0.48705
2.275,0.48657
2.28,0.48565
2.285,0.48527
2.29,0.48375
2.295,0.48279
2.3,0.48288
2.305,0.48091
2.31,0.47974
2.315,0.479
2.32,0.47948
2.325,0.47877
2.33,0.47976
2.335,0.47905
2.34,0.47937
2.345,0.47956
2.35,0.48035
2.355,0.48132
2.36,0.4824
2.365,0.48325
2.37,0.48502
2.375,0.48499
2.38,0.48531
2.385,0.48609
2.39,0.48685
2.395,0.48801
2.4,0.48955
2.405,0.4903
2.41,0.49199
2.415,0.49235
2.42,0.49417
2.425,0.49513
2.43,0.49568
2.435,0.49726
2.44,0.49761
2.445,0.49825
2.45,0.49844
2.455,0.49896
2.46,0.50087
2.465,0.50132
2.47,0.50255
2.475,0.5015
2.48,0.50423
2.485,0.5064
2.49,0.50727
2.495,0.50864
2.5,0.51055
