Brown University Keck/NASA Relab Spectrum OC-TXH-013-P/C1OC13P,
W,R
0.2,0.088901
0.205,0.089129
0.21,0.09126
0.215,0.095261
0.22,0.099721
0.225,0.103996
0.23,0.107918
0.235,0.111631
0.24,0.115553
0.245,0.120059
0.25,0.12442
0.255,0.128022
0.26,0.129984
0.265,0.129818
0.27,0.13324
0.275,0.137723
0.28,0.141857
0.285,0.145632
0.29,0.149288
0.295,0.153505
0.3,0.158404
0.305,0.164095
0.31,0.170755
0.315,0.178356
0.32,0.187165
0.325,0.195799
0.33,0.205074
0.335,0.214963
0.34,0.224634
0.345,0.234325
0.35,0.243964
0.355,0.253967
0.36,0.262897
0.365,0.271395
0.37,0.278843
0.375,0.285491
0.38,0.290782
0.385,0.295339
0.39,0.299878
0.395,0.303181
0.4,0.305528
0.405,0.30817
0.41,0.311099
0.415,0.313234
0.42,0.314803
0.425,0.31604
0.43,0.317012
0.435,0.317992
0.44,0.31845
0.445,0.318473
0.45,0.318336
0.455,0.318513
0.46,0.318989
0.465,0.31959
0.47,0.320087
0.475,0.320896
0.48,0.321572
0.485,0.321859
0.49,0.32164
0.495,0.321691
0.5,0.322066
0.505,0.32225
0.51,0.322712
0.515,0.323036
0.52,0.323064
0.525,0.322689
0.53,0.322927
0.535,0.322887
0.54,0.3228
0.545,0.322765
0.55,0.322634
0.555,0.322336
0.56,0.322142
0.565,0.32177
0.57,0.32149
0.575,0.321097
0.58,0.320556
0.585,0.320112
0.59,0.319644
0.595,0.319246
0.6,0.318694
0.605,0.318314
0.61,0.317733
0.615,0.317269
0.62,0.316752
0.625,0.316467
0.63,0.31599
0.635,0.315473
0.64,0.31536
0.645,0.31517
0.65,0.314861
0.655,0.314516
0.66,0.31399
0.665,0.312819
0.67,0.313451
0.675,0.313138
0.68,0.312632
0.685,0.312276
0.69,0.311947
0.695,0.31142
0.7,0.310886
0.705,0.310528
0.71,0.310157
0.715,0.309533
0.72,0.30886
0.725,0.308374
0.73,0.30761
0.735,0.307179
0.74,0.306649
0.745,0.306046
0.75,0.304968
0.755,0.3038
0.76,0.302059
0.765,0.301347
0.77,0.300178
0.775,0.299065
0.78,0.29795
0.785,0.296927
0.79,0.295798
0.795,0.294322
0.8,0.292634
0.805,0.291359
0.81,0.289928
0.815,0.288233
0.82,0.286811
0.825,0.285439
0.83,0.283805
0.835,0.281985
0.84,0.280102
0.845,0.278526
0.85,0.277031
0.855,0.275457
0.86,0.274041
0.865,0.27269
0.87,0.272103
0.875,0.269968
0.88,0.2694
0.885,0.267922
0.89,0.266831
0.895,0.265769
0.9,0.264708
0.905,0.263749
0.91,0.262733
0.915,0.262055
0.92,0.261217
0.925,0.260491
0.93,0.259794
0.935,0.25912
0.94,0.258546
0.945,0.258037
0.95,0.257618
0.955,0.257103
0.96,0.256775
0.965,0.256522
0.97,0.2561
0.975,0.255787
0.98,0.255748
0.985,0.255314
0.99,0.254848
0.995,0.254423
1,0.254169
1.005,0.253926
1.01,0.253532
1.015,0.253314
1.02,0.252991
1.025,0.252881
1.03,0.252637
1.035,0.252385
1.04,0.25215
1.045,0.251807
1.05,0.251695
1.055,0.251669
1.06,0.251483
1.065,0.251208
1.07,0.251103
1.075,0.250944
1.08,0.251075
1.085,0.251481
1.09,0.251646
1.095,0.251959
1.1,0.251994
1.105,0.252227
1.11,0.252404
1.115,0.252935
1.12,0.253155
1.125,0.25369
1.13,0.25403
1.135,0.254189
1.14,0.254458
1.145,0.254635
1.15,0.254696
1.155,0.254553
1.16,0.254565
1.165,0.254556
1.17,0.254806
1.175,0.254644
1.18,0.254538
1.185,0.254444
1.19,0.254335
1.195,0.254027
1.2,0.253844
1.205,0.253743
1.21,0.253467
1.215,0.253239
1.22,0.253378
1.225,0.25319
1.23,0.25299
1.235,0.252989
1.24,0.252923
1.245,0.252546
1.25,0.252351
1.255,0.252292
1.26,0.252162
1.265,0.251905
1.27,0.251768
1.275,0.251602
1.28,0.25122
1.285,0.250961
1.29,0.25085
1.295,0.250692
1.3,0.250526
1.305,0.250476
1.31,0.250483
1.315,0.250556
1.32,0.250485
1.325,0.250562
1.33,0.250574
1.335,0.250387
1.34,0.2503
1.345,0.25016
1.35,0.250004
1.355,0.24988
1.36,0.249893
1.365,0.249943
1.37,0.249916
1.375,0.249773
1.38,0.249891
1.385,0.250019
1.39,0.250067
1.395,0.249958
1.4,0.249687
1.405,0.249467
1.41,0.24951
1.415,0.249624
1.42,0.249489
1.425,0.249424
1.43,0.249482
1.435,0.249185
1.44,0.248883
1.445,0.248833
1.45,0.248618
1.455,0.248605
1.46,0.248375
1.465,0.248099
1.47,0.248182
1.475,0.248019
1.48,0.247809
1.485,0.247655
1.49,0.247578
1.495,0.247353
1.5,0.247234
1.505,0.247031
1.51,0.246773
1.515,0.246424
1.52,0.246183
1.525,0.246078
1.53,0.245676
1.535,0.245366
1.54,0.244958
1.545,0.24433
1.55,0.244066
1.555,0.243858
1.56,0.243637
1.565,0.243293
1.57,0.242832
1.575,0.242408
1.58,0.24208
1.585,0.241808
1.59,0.241587
1.595,0.241112
1.6,0.240553
1.605,0.240006
1.61,0.239436
1.615,0.239128
1.62,0.238605
1.625,0.237961
1.63,0.237377
1.635,0.237064
1.64,0.237079
1.645,0.236832
1.65,0.236338
1.655,0.235711
1.66,0.234957
1.665,0.234622
1.67,0.234346
1.675,0.234183
1.68,0.233808
1.685,0.233023
1.69,0.232387
1.695,0.231691
1.7,0.231441
1.705,0.230959
1.71,0.230503
1.715,0.229952
1.72,0.22929
1.725,0.228708
1.73,0.228193
1.735,0.227541
1.74,0.227175
1.745,0.22653
1.75,0.225761
1.755,0.225293
1.76,0.224873
1.765,0.22425
1.77,0.223852
1.775,0.223574
1.78,0.223273
1.785,0.222815
1.79,0.222272
1.795,0.222125
1.8,0.221463
1.805,0.221043
1.81,0.22066
1.815,0.220015
1.82,0.219373
1.825,0.219014
1.83,0.218871
1.835,0.218676
1.84,0.218215
1.845,0.218024
1.85,0.217609
1.855,0.217692
1.86,0.217347
1.865,0.21711
1.87,0.216998
1.875,0.216449
1.88,0.215644
1.885,0.215388
1.89,0.214997
1.895,0.214346
1.9,0.213714
1.905,0.213239
1.91,0.213292
1.915,0.213035
1.92,0.212583
1.925,0.212222
1.93,0.211915
1.935,0.211596
1.94,0.21138
1.945,0.210644
1.95,0.210125
1.955,0.209761
1.96,0.209467
1.965,0.209166
1.97,0.208926
1.975,0.209029
1.98,0.209005
1.985,0.208416
1.99,0.208255
1.995,0.208348
2,0.208089
2.005,0.207751
2.01,0.207732
2.015,0.207427
2.02,0.207618
2.025,0.20749
2.03,0.207408
2.035,0.207378
2.04,0.207733
2.045,0.207614
2.05,0.207563
2.055,0.207332
2.06,0.207093
2.065,0.206862
2.07,0.206663
2.075,0.206092
2.08,0.205955
2.085,0.205664
2.09,0.205188
2.095,0.204844
2.1,0.204599
2.105,0.204435
2.11,0.204274
2.115,0.204136
2.12,0.20398
2.125,0.203513
2.13,0.203576
2.135,0.203467
2.14,0.203589
2.145,0.203515
2.15,0.20294
2.155,0.202758
2.16,0.202709
2.165,0.202512
2.17,0.201961
2.175,0.201682
2.18,0.201389
2.185,0.201484
2.19,0.200951
2.195,0.200702
2.2,0.200579
2.205,0.200346
2.21,0.200455
2.215,0.199822
2.22,0.199872
2.225,0.200108
2.23,0.199965
2.235,0.200015
2.24,0.19989
2.245,0.199979
2.25,0.200135
2.255,0.199783
2.26,0.199499
2.265,0.19932
2.27,0.198671
2.275,0.19868
2.28,0.198554
2.285,0.198117
2.29,0.198289
2.295,0.198279
2.3,0.198463
2.305,0.198048
2.31,0.197706
2.315,0.197401
2.32,0.197367
2.325,0.197007
2.33,0.196872
2.335,0.197064
2.34,0.196388
2.345,0.196471
2.35,0.196236
2.355,0.195751
2.36,0.1953
2.365,0.195014
2.37,0.194579
2.375,0.194693
2.38,0.194298
2.385,0.194283
2.39,0.194163
2.395,0.193768
2.4,0.194013
2.405,0.193711
2.41,0.193646
2.415,0.193595
2.42,0.19351
2.425,0.193423
2.43,0.192509
2.435,0.192932
2.44,0.193077
2.445,0.192768
2.45,0.192478
2.455,0.192535
2.46,0.192336
2.465,0.192111
2.47,0.191576
2.475,0.191687
2.48,0.191336
2.485,0.191271
2.49,0.191523
2.495,0.19112
2.5,0.190801
